* Measurement data measured by REW V5.20.13
* Source: Umik-1  Gain: 12dB  , MICROPHONE, R, volume: 1.000. Timing signal peak level -23.0 dBFS, measurement signal peak level -18.0 dBFS
* Format: 512k Log Swept Sine, 1 sweep at -12.0 dBFS using an acoustic timing reference
* Dated: Aug 15, 2023 8:38:56 PM
* REW Settings:
*  C-weighting compensation: Off
*  Target level: 75.0 dB
* Note: Delay -0.1348 ms (-46 mm, -1.82 in) using IR start time relative to Acoustic reference played from SPEAKER R with -0.0186 ms (-6.4 mm, -0.25 in) timing offset Clock adjustment: 1,237.9 ppm
* Measurement: crossover v2 76
* Smoothing: Psychoacoustic
* Frequency Step: 1/48 octave
* Start Frequency: 20.300 Hz
*
* Freq(Hz), SPL(dB), Phase(degrees)
20.299999, 55.906, 39.9091
20.600000, 56.535, 39.5339
20.900000, 57.166, 39.1173
21.200001, 57.791, 38.6109
21.400000, 58.202, 38.2065
21.799999, 59.005, 37.2004
22.000000, 59.396, 36.5762
22.400000, 60.152, 35.0373
22.700001, 60.695, 33.5908
23.000000, 61.216, 31.8594
23.299999, 61.716, 29.8183
23.600000, 62.193, 27.4493
24.000000, 62.794, 23.7593
24.299999, 63.218, 20.5851
24.700001, 63.747, 15.8124
25.000000, 64.118, 11.8380
25.400000, 64.577, 6.0372
25.799999, 64.996, -0.2945
26.200001, 65.376, -7.1007
26.500000, 65.636, -12.4766
26.900000, 65.950, -19.9528
27.200001, 66.161, -25.7492
27.600000, 66.411, -33.6725
28.000000, 66.625, -41.7503
28.500000, 66.846, -51.9571
29.000000, 67.015, -62.1618
29.500000, 67.135, -72.2515
30.000000, 67.210, -82.1193
30.400000, 67.237, -89.7931
30.700001, 67.241, -95.3948
31.100000, 67.223, -102.6303
31.500000, 67.182, -109.5743
32.000000, 67.099, -117.8109
32.500000, 66.984, -125.5261
33.000000, 66.840, -132.6995
33.500000, 66.670, -139.3223
34.000000, 66.477, -145.3940
34.500000, 66.264, -150.9217
35.000000, 66.033, -155.9180
35.500000, 65.786, -160.4020
36.000000, 65.528, -164.3980
36.500000, 65.262, -167.9341
37.000000, 64.991, -171.0454
37.500000, 64.721, -173.7694
38.200001, 64.355, -177.0129
38.700001, 64.109, -178.9829
39.500000, 63.764, 178.3366
40.000000, 63.588, 176.8853
40.599998, 63.425, 175.3008
41.200001, 63.321, 173.8228
41.799999, 63.277, 172.3935
42.500000, 63.300, 170.7238
43.099998, 63.377, 169.2489
43.700001, 63.499, 167.7070
44.400002, 63.689, 165.8051
45.000000, 63.885, 164.0812
45.500000, 64.069, 162.5803
46.200001, 64.351, 160.3897
46.799999, 64.615, 158.4409
47.500000, 64.945, 156.1017
48.200001, 65.300, 153.7106
48.700001, 65.566, 151.9811
49.400002, 65.958, 149.5418
50.000000, 66.308, 147.4429
50.799999, 66.795, 144.6426
51.500000, 67.236, 142.1956
52.200001, 67.686, 139.7518
53.000000, 68.208, 136.9573
53.799999, 68.733, 134.1490
54.500000, 69.190, 131.6664
55.200001, 69.641, 129.1444
56.000000, 70.147, 126.1919
57.000000, 70.758, 122.3554
58.000000, 71.342, 118.3054
59.000000, 71.892, 113.9896
60.000000, 72.405, 109.3616
60.799999, 72.787, 105.4093
61.500000, 73.100, 101.7574
62.200001, 73.391, 97.9191
63.000000, 73.698, 93.3030
64.000000, 74.040, 87.1961
65.000000, 74.337, 80.7383
66.000000, 74.586, 73.9700
67.000000, 74.787, 66.9459
68.000000, 74.943, 59.7323
69.000000, 75.052, 52.4024
70.000000, 75.117, 45.0318
71.000000, 75.140, 37.6938
72.000000, 75.124, 30.4555
73.000000, 75.073, 23.3737
74.000000, 74.990, 16.4940
75.000000, 74.878, 9.8502
76.199997, 74.714, 2.2209
77.500000, 74.505, -5.5967
78.800003, 74.274, -12.9363
80.000000, 74.049, -19.2838
81.199997, 73.821, -25.2215
82.500000, 73.579, -31.1935
83.800003, 73.356, -36.6893
85.000000, 73.178, -41.3433
86.199997, 73.041, -45.6012
87.500000, 72.953, -49.7780
88.500000, 72.937, -52.6927
90.000000, 73.012, -56.6038
91.199997, 73.161, -59.3601
92.500000, 73.408, -62.0053
93.800003, 73.735, -64.3333
95.000000, 74.093, -66.2369
96.199997, 74.493, -67.9426
97.500000, 74.959, -69.6131
98.800003, 75.444, -71.1525
100.000000, 75.899, -72.5082
101.500000, 76.470, -74.1971
103.000000, 77.035, -75.9828
104.400002, 77.553, -77.8291
106.000000, 78.125, -80.2630
107.500000, 78.639, -82.9597
109.000000, 79.129, -86.1451
110.599998, 79.622, -90.1582
112.000000, 80.028, -94.2343
113.800003, 80.512, -100.2802
115.000000, 80.812, -104.8141
117.199997, 81.312, -114.1283
118.000000, 81.478, -117.8167
120.599998, 81.961, -130.7782
122.000000, 82.186, -138.2885
124.099998, 82.480, -150.0985
125.000000, 82.590, -155.3200
126.500000, 82.754, -164.1851
128.000000, 82.893, -173.2026
131.500000, 83.130, 165.4372
132.000000, 83.154, 162.3710
134.000000, 83.227, 150.1166
136.000000, 83.262, 137.9201
138.000000, 83.260, 125.8257
140.000000, 83.223, 113.8634
143.000000, 83.105, 96.2038
145.000000, 82.988, 84.6270
147.500000, 82.801, 70.3723
150.000000, 82.571, 56.3527
152.500000, 82.300, 42.5726
155.000000, 81.986, 29.0515
157.500000, 81.629, 15.8170
160.000000, 81.232, 2.8943
162.500000, 80.795, -9.7024
165.000000, 80.321, -21.9789
167.500000, 79.814, -33.9670
170.000000, 79.279, -45.7336
172.500000, 78.721, -57.3947
175.000000, 78.147, -69.1282
177.500000, 77.564, -81.1827
180.000000, 76.987, -93.8691
182.500000, 76.433, -107.5323
185.000000, 75.923, -122.5021
187.500000, 75.485, -139.0358
190.000000, 75.142, -157.2681
192.500000, 74.911, -177.1807
195.000000, 74.795, 161.4019
197.500000, 74.783, 138.7903
200.000000, 74.849, 115.3950
203.000000, 74.994, 86.9396
206.000000, 75.171, 58.8347
209.000000, 75.349, 31.8197
212.000000, 75.514, 6.4952
214.000000, 75.617, -9.2324
218.000000, 75.814, -37.5962
220.000000, 75.917, -50.2014
224.000000, 76.153, -72.4602
227.000000, 76.367, -86.9244
230.000000, 76.610, -99.9254
233.000000, 76.873, -111.9100
236.000000, 77.140, -123.3049
240.000000, 77.472, -138.1907
243.000000, 77.684, -149.4469
247.000000, 77.898, -164.8251
250.000000, 77.999, -176.6726
254.000000, 78.054, 167.1860
258.000000, 78.019, 150.8047
262.000000, 77.900, 134.3429
265.000000, 77.761, 122.0009
269.000000, 77.518, 105.5413
272.000000, 77.298, 93.1233
276.000000, 76.964, 76.2698
280.000000, 76.595, 58.7476
285.000000, 76.095, 35.2236
290.000000, 75.563, 8.9694
295.000000, 75.005, -21.0784
300.000000, 74.433, -55.9872
304.000000, 73.981, -88.0623
307.000000, 73.660, -114.7832
311.000000, 73.282, -154.1057
315.000000, 73.001, 162.4238
320.000000, 72.842, 102.8735
325.000000, 72.931, 38.9414
330.000000, 73.238, -27.2745
335.000000, 73.685, -93.3748
340.000000, 74.186, -157.0376
345.000000, 74.678, 143.6426
350.000000, 75.121, 89.9336
355.000000, 75.494, 42.4080
360.000000, 75.788, 1.0361
365.000000, 76.003, -34.6304
370.000000, 76.145, -65.2744
375.000000, 76.224, -91.6589
382.000000, 76.260, -122.8826
387.000000, 76.260, -142.0593
395.000000, 76.263, -169.0493
400.000000, 76.284, 175.5674
406.000000, 76.332, 157.9131
412.000000, 76.398, 140.6340
418.000000, 76.468, 123.3455
425.000000, 76.539, 102.7939
431.000000, 76.576, 84.5967
437.000000, 76.579, 65.6470
444.000000, 76.528, 42.2920
450.000000, 76.432, 20.9023
455.000000, 76.315, 1.8655
462.000000, 76.099, -27.0801
468.000000, 75.873, -54.4539
475.000000, 75.567, -89.8538
482.000000, 75.225, -129.2148
487.000000, 74.960, -159.6570
494.000000, 74.566, 155.0085
500.000000, 74.210, 114.4214
508.000000, 73.719, 59.4863
515.000000, 73.281, 12.2100
522.000000, 72.842, -33.1672
530.000000, 72.346, -82.0786
538.000000, 71.872, -128.0869
545.000000, 71.496, -166.7288
552.000000, 71.183, 155.2141
560.000000, 70.942, 111.3616
570.000000, 70.865, 54.7932
580.000000, 71.024, -3.9373
590.000000, 71.325, -63.5090
600.000000, 71.642, -121.5796
608.000000, 71.845, -165.3584
615.000000, 71.963, 159.0437
622.000000, 72.020, 126.2886
630.000000, 72.014, 92.3884
640.000000, 71.917, 54.9521
650.000000, 71.743, 22.2107
660.000000, 71.512, -6.8020
670.000000, 71.236, -32.9390
680.000000, 70.915, -56.8223
690.000000, 70.548, -78.8213
700.000000, 70.139, -99.1250
710.000000, 69.703, -117.8386
720.000000, 69.273, -135.0723
730.000000, 68.901, -151.0288
740.000000, 68.654, -166.1016
750.000000, 68.595, 179.0420
762.000000, 68.814, 160.1411
775.000000, 69.354, 136.1814
788.000000, 70.081, 106.2849
800.000000, 70.816, 71.9150
812.000000, 71.556, 30.3853
825.000000, 72.323, -22.4473
838.000000, 73.021, -82.0034
850.000000, 73.580, -140.6367
862.000000, 74.040, 160.0195
875.000000, 74.421, 98.0586
885.000000, 74.637, 53.6528
900.000000, 74.855, -6.1699
912.000000, 74.963, -48.0264
925.000000, 75.034, -88.0303
938.000000, 75.070, -123.5645
950.000000, 75.078, -153.3818
962.000000, 75.062, 178.8623
975.000000, 75.022, 150.4033
988.000000, 74.962, 123.0088
1000.000000, 74.893, 98.2310
1015.000000, 74.784, 67.4385
1030.000000, 74.638, 36.3301
1044.000000, 74.455, 6.4985
1060.000000, 74.184, -29.3843
1075.000000, 73.877, -65.9717
1090.000000, 73.542, -107.0923
1106.000000, 73.185, -158.2422
1120.000000, 72.902, 148.7803
1138.000000, 72.615, 66.6436
1150.000000, 72.487, 2.0229
1172.000000, 72.396, -137.1675
1180.000000, 72.408, 166.3125
1206.000000, 72.580, -30.7480
1220.000000, 72.738, -138.9219
1241.000000, 73.024, 67.0112
1250.000000, 73.157, 6.2642
1265.000000, 73.382, -86.0732
1280.000000, 73.611, -166.6328
1315.000000, 74.162, 47.3770
1320.000000, 74.243, 30.5156
1340.000000, 74.565, -29.5464
1360.000000, 74.868, -80.7090
1380.000000, 75.120, -126.2178
1400.000000, 75.291, -168.4595
1430.000000, 75.354, 130.8857
1450.000000, 75.261, 90.7124
1475.000000, 75.019, 39.2637
1500.000000, 74.692, -15.2061
1525.000000, 74.363, -74.4922
1550.000000, 74.114, -139.8311
1575.000000, 73.999, 148.8784
1600.000000, 74.024, 73.5000
1625.000000, 74.148, -2.7446
1650.000000, 74.309, -76.3970
1675.000000, 74.447, -144.8433
1700.000000, 74.523, 153.2446
1725.000000, 74.528, 98.0576
1750.000000, 74.480, 49.0254
1775.000000, 74.424, 5.1470
1800.000000, 74.406, -34.7788
1825.000000, 74.463, -71.9805
1850.000000, 74.601, -107.5781
1875.000000, 74.799, -142.4473
1900.000000, 75.025, -177.1494
1925.000000, 75.250, 148.0591
1950.000000, 75.456, 113.1396
1975.000000, 75.640, 78.1729
2000.000000, 75.804, 43.2578
2030.000000, 75.989, 1.5146
2060.000000, 76.168, -40.0576
2090.000000, 76.341, -81.4858
2120.000000, 76.504, -122.7690
2140.000000, 76.606, -150.1924
2180.000000, 76.798, 155.2207
2200.000000, 76.888, 128.0352
2240.000000, 77.053, 73.7412
2270.000000, 77.149, 33.0107
2300.000000, 77.204, -7.7490
2330.000000, 77.206, -48.4844
2360.000000, 77.151, -89.0869
2400.000000, 77.000, -142.8867
2430.000000, 76.846, 176.9990
2470.000000, 76.623, 123.5674
2500.000000, 76.463, 83.1816
2540.000000, 76.281, 28.2422
2580.000000, 76.135, -28.8418
2620.000000, 76.009, -89.0732
2650.000000, 75.914, -136.8906
2690.000000, 75.775, 155.1777
2720.000000, 75.659, 100.8320
2760.000000, 75.496, 23.9180
2800.000000, 75.336, -57.2090
2850.000000, 75.150, -161.6484
2900.000000, 74.968, 95.1953
2950.000000, 74.757, -2.0049
3000.000000, 74.497, -90.4619
3040.000000, 74.255, -154.4971
3070.000000, 74.063, 161.1074
3110.000000, 73.808, 106.0537
3150.000000, 73.574, 54.8105
3200.000000, 73.331, -5.3428
3250.000000, 73.154, -62.5586
3300.000000, 73.035, -117.8848
3350.000000, 72.960, -171.9639
3400.000000, 72.908, 134.8506
3450.000000, 72.869, 82.3633
3500.000000, 72.835, 30.4375
3550.000000, 72.802, -21.0469
3600.000000, 72.763, -72.1816
3650.000000, 72.713, -122.9658
3700.000000, 72.648, -173.3281
3750.000000, 72.570, 136.8066
3820.000000, 72.451, 67.9355
3870.000000, 72.367, 19.4189
3950.000000, 72.240, -57.1299
4000.000000, 72.164, -104.3701
4060.000000, 72.067, -160.4688
4120.000000, 71.958, 144.1152
4180.000000, 71.838, 89.4355
4250.000000, 71.696, 26.6514
4310.000000, 71.587, -26.2715
4370.000000, 71.507, -78.3945
4440.000000, 71.468, -138.2656
4500.000000, 71.495, 171.1094
4550.000000, 71.565, 129.3145
4620.000000, 71.729, 71.2539
4680.000000, 71.920, 21.7578
4750.000000, 72.178, -35.7627
4820.000000, 72.450, -93.0703
4870.000000, 72.641, -133.8691
4940.000000, 72.893, 169.1953
5000.000000, 73.087, 120.6367
5080.000000, 73.313, 56.3047
5150.000000, 73.479, 0.4570
5220.000000, 73.616, -54.9688
5300.000000, 73.736, -117.7734
5380.000000, 73.809, -179.9873
5450.000000, 73.833, 126.1094
5520.000000, 73.820, 72.7656
5600.000000, 73.760, 12.5508
5700.000000, 73.628, -61.4570
5800.000000, 73.449, -133.9043
5900.000000, 73.250, 155.3096
6000.000000, 73.069, 86.1621
6080.000000, 72.967, 31.9365
6150.000000, 72.923, -14.8145
6220.000000, 72.930, -60.9990
6300.000000, 73.000, -113.2090
6400.000000, 73.172, -177.7432
6500.000000, 73.414, 118.3496
6600.000000, 73.698, 54.9961
6700.000000, 73.999, -7.8652
6800.000000, 74.296, -70.3047
6900.000000, 74.571, -132.3291
7000.000000, 74.806, 166.0244
7100.000000, 74.990, 104.8213
7200.000000, 75.117, 44.1670
7300.000000, 75.189, -15.8252
7400.000000, 75.217, -74.9971
7500.000000, 75.214, -133.2812
7620.000000, 75.195, 157.9980
7750.000000, 75.181, 84.9746
7880.000000, 75.187, 13.2617
8000.000000, 75.204, -51.9512
8120.000000, 75.218, -116.2803
8250.000000, 75.210, 175.0332
8380.000000, 75.165, 107.5107
8500.000000, 75.087, 46.3164
8620.000000, 74.980, -13.6748
8750.000000, 74.851, -77.2275
8850.000000, 74.759, -125.1260
9000.000000, 74.666, 164.5186
9120.000000, 74.651, 109.3594
9250.000000, 74.708, 50.5010
9380.000000, 74.836, -7.6035
9500.000000, 75.006, -60.7793
9620.000000, 75.209, -113.5898
9750.000000, 75.448, -170.5127
9880.000000, 75.687, 132.6807
10000.000000, 75.894, 80.5215
10150.000000, 76.119, 15.3350
10300.000000, 76.290, -49.4639
10440.000000, 76.392, -109.7969
10600.000000, 76.434, -178.3975
10750.000000, 76.396, 117.7822
10900.000000, 76.284, 54.5205
11060.000000, 76.090, -12.1816
11200.000000, 75.861, -69.7900
11380.000000, 75.497, -142.7041
11500.000000, 75.218, 169.5127
11720.000000, 74.645, 83.7754
11800.000000, 74.423, 53.2480
12060.000000, 73.682, -43.3350
12200.000000, 73.291, -93.5869
12410.000000, 72.752, -166.5518
12500.000000, 72.548, 163.0889
12650.000000, 72.256, 113.7139
12800.000000, 72.033, 65.8945
13150.000000, 71.807, -39.7188
13200.000000, 71.806, -54.1455
13400.000000, 71.873, -110.2051
13600.000000, 72.030, -163.8584
13800.000000, 72.246, 144.6973
14000.000000, 72.485, 95.2070
14300.000000, 72.816, 24.1953
14500.000000, 72.978, -21.0918
14750.000000, 73.087, -75.3945
15000.000000, 73.076, -126.9180
15250.000000, 72.942, -175.4785
15500.000000, 72.694, 139.2061
15750.000000, 72.346, 97.2607
16000.000000, 71.918, 58.7061
16250.000000, 71.435, 23.4609
16500.000000, 70.924, -8.6016
16750.000000, 70.412, -37.7021
17000.000000, 69.923, -63.9512
17250.000000, 69.474, -87.4639
17500.000000, 69.075, -108.1953
17750.000000, 68.731, -125.9873
18000.000000, 68.441, -140.6260
18250.000000, 68.206, -151.9316
18500.000000, 68.031, -159.9238
18750.000000, 67.914, -164.9102
19000.000000, 67.850, -167.4922
19250.000000, 67.824, -168.4824
19500.000000, 67.818, -168.7695
19750.000000, 67.817, -168.7695
